#Wave		#Intensity
3200.881836	1610.038574
3200.179688	1627.702148
3199.477539	1642.302490
3198.775391	1654.485840
3198.073242	1653.229004
3197.370117	1651.944336
3196.667969	1653.993774
3195.964844	1646.340698
3195.262695	1624.232788
3194.559570	1601.374512
3193.856445	1595.719849
3193.152344	1580.034302
3192.449219	1572.885498
3191.746094	1570.274414
3191.041992	1554.872803
3190.338867	1556.755981
3189.634766	1548.769775
3188.930664	1533.189087
3188.226563	1545.334839
3187.522461	1551.951904
3186.817383	1570.301636
3186.113281	1579.323730
3185.408203	1581.803955
3184.704102	1613.582886
3183.999023	1587.031372
3183.293945	1551.531982
3182.588867	1544.954712
3181.883789	1547.871094
3181.177734	1549.392456
3180.472656	1542.869263
3179.766602	1542.201904
3179.061523	1549.097412
3178.355469	1523.057495
3177.649414	1520.440430
3176.943359	1537.671753
3176.236328	1540.154297
3175.530273	1522.621948
3174.823242	1479.198120
3174.117188	1464.249634
3173.410156	1452.466187
3172.703125	1463.129395
3171.996094	1476.617798
3171.289063	1496.053833
3170.582031	1503.398315
3169.874023	1489.753784
3169.166992	1484.341919
3168.458984	1495.043091
3167.750977	1491.978271
3167.042969	1486.685181
3166.334961	1464.899048
3165.626953	1475.163208
3164.918945	1483.496216
3164.209961	1466.046753
3163.501953	1473.138550
3162.792969	1488.036011
3162.083984	1496.839966
3161.375000	1493.149414
3160.666016	1492.581055
3159.957031	1502.423584
3159.248047	1501.545532
3158.538086	1477.578247
3157.829102	1468.296143
3157.119141	1472.976440
3156.409180	1463.823608
3155.699219	1475.007324
3154.989258	1489.658447
3154.279297	1485.637329
3153.568359	1479.445435
3152.858398	1487.699707
3152.147461	1476.948242
3151.436523	1478.066528
3150.725586	1455.424438
3150.014648	1473.501587
3149.303711	1479.210449
3148.592773	1453.193237
3147.880859	1443.029053
3147.169922	1439.904785
3146.458008	1427.347290
3145.746094	1427.213257
3145.034180	1414.643677
3144.322266	1412.220459
3143.610352	1408.295776
3142.898438	1390.409424
3142.185547	1384.560425
3141.473633	1384.422729
3140.760742	1397.137207
3140.047852	1410.449829
3139.334961	1427.549316
3138.622070	1428.850952
3137.908203	1443.704468
3137.195313	1431.811523
3136.482422	1430.608887
3135.768555	1430.517212
3135.054688	1423.694092
3134.340820	1419.455078
3133.626953	1431.650635
3132.913086	1440.090454
3132.199219	1458.724121
3131.484375	1430.543457
3130.770508	1438.512817
3130.055664	1428.532471
3129.340820	1403.051880
3128.625977	1398.311279
3127.911133	1426.566895
3127.196289	1443.363159
3126.480469	1461.233887
3125.765625	1440.936279
3125.049805	1461.144043
3124.333984	1453.778809
3123.619141	1429.953125
3122.903320	1425.659424
3122.186523	1426.159912
3121.470703	1437.472656
3120.754883	1425.970215
3120.038086	1425.152466
3119.321289	1429.284790
3118.605469	1416.734253
3117.888672	1398.522339
3117.171875	1386.946777
3116.454102	1382.135132
3115.737305	1392.005859
3115.020508	1386.863647
3114.302734	1398.724243
3113.584961	1385.727417
3112.867188	1377.108154
3112.149414	1367.781372
3111.431641	1344.306763
3110.713867	1333.273193
3109.996094	1334.585571
3109.277344	1343.605225
3108.558594	1342.921143
3107.840820	1335.982788
3107.122070	1339.156250
3106.403320	1325.789063
3105.683594	1312.086792
3104.964844	1307.317261
3104.246094	1320.586548
3103.526367	1334.650513
3102.806641	1356.109375
3102.086914	1364.532959
3101.367188	1378.282593
3100.647461	1359.254883
3099.927734	1345.485718
3099.208008	1341.336548
3098.487305	1331.485718
3097.766602	1325.301392
3097.046875	1328.792603
3096.326172	1320.487915
3095.605469	1334.705811
3094.883789	1315.713135
3094.163086	1323.134766
3093.442383	1334.019043
3092.720703	1348.896118
3091.999023	1359.185913
3091.278320	1347.678345
3090.556641	1335.145142
3089.833984	1328.487793
3089.112305	1305.018433
3088.390625	1287.895386
3087.667969	1264.307739
3086.946289	1295.536743
3086.223633	1303.998535
3085.500977	1299.260132
3084.778320	1304.948853
3084.055664	1310.923340
3083.332031	1325.307495
3082.609375	1300.898071
3081.885742	1296.081421
3081.163086	1312.604004
3080.439453	1291.255615
3079.715820	1299.076538
3078.992188	1307.851440
3078.268555	1315.928711
3077.543945	1321.770142
3076.820313	1295.546143
3076.095703	1298.458496
3075.371094	1303.479980
3074.646484	1301.528931
3073.921875	1316.328979
3073.197266	1311.549316
3072.472656	1307.146729
3071.747070	1310.592285
3071.022461	1319.760864
3070.296875	1327.303833
3069.571289	1344.762939
3068.845703	1350.810791
3068.120117	1360.296631
3067.394531	1365.414307
3066.667969	1352.552979
3065.942383	1347.678345
3065.215820	1314.786255
3064.489258	1287.260620
3063.762695	1269.257080
3063.036133	1241.656860
3062.309570	1263.628662
3061.583008	1268.495239
3060.855469	1246.194092
3060.128906	1251.673706
3059.401367	1241.608276
3058.673828	1263.398071
3057.946289	1274.751465
3057.218750	1293.487183
3056.491211	1309.841309
3055.762695	1292.042603
3055.035156	1253.962891
3054.306641	1268.966064
3053.578125	1277.909546
3052.849609	1282.910767
3052.121094	1297.469604
3051.392578	1330.331055
3050.664063	1337.149658
3049.934570	1337.181763
3049.206055	1329.967651
3048.476563	1351.852539
3047.747070	1337.545532
3047.017578	1315.499390
3046.288086	1302.382080
3045.558594	1302.861328
3044.828125	1305.262329
3044.098633	1305.448120
3043.368164	1325.174316
3042.637695	1342.279785
3041.907227	1329.251709
3041.176758	1323.861694
3040.446289	1316.425781
3039.714844	1317.523193
3038.984375	1314.585327
3038.252930	1301.924438
3037.521484	1300.638550
3036.790039	1298.431641
3036.058594	1322.689819
3035.327148	1343.454346
3034.595703	1342.820679
3033.863281	1355.185303
3033.131836	1345.684448
3032.399414	1334.627563
3031.666992	1309.595459
3030.934570	1306.829102
3030.202148	1339.217651
3029.469727	1335.135742
3028.736328	1329.827393
3028.003906	1357.941528
3027.270508	1358.645508
3026.537109	1379.079468
3025.804688	1387.419189
3025.070313	1375.843506
3024.336914	1374.984253
3023.603516	1370.110229
3022.869141	1372.897217
3022.135742	1377.347534
3021.401367	1389.845093
3020.666992	1412.345703
3019.932617	1442.756104
3019.198242	1445.900635
3018.463867	1468.135986
3017.728516	1508.750000
3016.993164	1561.176270
3016.258789	1600.243774
3015.523438	1641.162598
3014.788086	1668.150757
3014.052734	1716.478271
3013.317383	1775.312622
3012.581055	1873.836548
3011.845703	2028.580933
3011.109375	2233.585449
3010.373047	2512.069580
3009.636719	2837.784668
3008.900391	3277.544678
3008.164063	3894.211426
3007.427734	4760.735352
3006.690430	5827.843262
3005.953125	7043.217773
3005.216797	8286.828125
3004.479492	9357.227539
3003.742188	10051.861328
3003.003906	10276.547852
3002.266602	9957.012695
3001.529297	9221.420898
3000.791016	8226.733398
3000.052734	7216.400391
2999.315430	6286.592285
2998.577148	5557.483887
2997.837891	5037.565918
2997.099609	4633.716797
2996.361328	4271.712891
2995.622070	3898.807129
2994.882813	3571.537109
2994.144531	3255.729980
2993.405273	2922.363281
2992.666016	2693.829834
2991.925781	2509.849854
2991.186523	2383.585205
2990.446289	2311.634033
2989.707031	2224.131836
2988.966797	2155.443359
2988.226563	2075.540283
2987.486328	1972.942261
2986.746094	1926.324585
2986.005859	1892.858154
2985.264648	1863.343994
2984.523438	1846.121460
2983.783203	1828.393799
2983.041992	1829.795898
2982.300781	1837.406616
2981.559570	1880.342773
2980.817383	1973.936401
2980.076172	2013.851196
2979.333984	2031.587891
2978.592773	2107.849365
2977.850586	2212.044189
2977.108398	2358.723389
2976.366211	2575.945068
2975.623047	2907.645020
2974.880859	3284.231934
2974.137695	3771.305908
2973.395508	4396.846191
2972.652344	5316.266602
2971.909180	6504.479492
2971.166016	8044.826660
2970.422852	9901.942383
2969.678711	11915.338867
2968.935547	13723.705078
2968.191406	15132.908203
2967.447266	15848.980469
2966.703125	15782.290039
2965.958984	14869.052734
2965.214844	13396.694336
2964.470703	11633.712891
2963.725586	9891.133789
2962.981445	8337.789063
2962.236328	7143.300293
2961.491211	6377.220215
2960.746094	5887.942383
2960.000977	5588.639648
2959.254883	5530.541016
2958.509766	5644.419922
2957.763672	5958.547852
2957.018555	6526.858398
2956.272461	7427.972168
2955.526367	8663.891602
2954.780273	10144.851563
2954.033203	11551.104492
2953.287109	12810.407227
2952.540039	13578.510742
2951.793945	13655.400391
2951.046875	13041.068359
2950.299805	11881.506836
2949.552734	10354.040039
2948.804688	8727.527344
2948.057617	7117.456543
2947.310547	5818.056152
2946.562500	4834.940430
2945.814453	4113.469238
2945.066406	3592.730225
2944.318359	3208.585693
2943.570313	2897.674805
2942.821289	2616.676025
2942.073242	2382.084473
2941.324219	2204.311768
2940.575195	2071.590820
2939.826172	1984.764893
2939.077148	1877.249390
2938.328125	1779.665405
2937.579102	1686.548828
2936.829102	1613.926025
2936.080078	1537.409302
2935.330078	1491.137207
2934.580078	1441.072998
2933.830078	1426.546509
2933.080078	1375.347168
2932.329102	1336.433350
2931.579102	1271.214844
2930.828125	1249.603271
2930.078125	1197.619873
2929.327148	1183.949829
2928.576172	1182.876465
2927.824219	1169.671021
2927.073242	1137.170776
2926.322266	1131.809570
2925.570313	1101.201172
2924.818359	1092.255005
2924.067383	1053.308228
2923.314453	1077.942871
2922.562500	1086.356934
2921.810547	1073.011963
2921.058594	1070.002930
2920.305664	1073.656738
2919.552734	1077.544556
2918.799805	1064.087036
2918.046875	1040.749268
2917.293945	1029.344971
2916.541016	1014.175659
2915.788086	1016.664734
2915.034180	995.401062
2914.280273	978.163818
2913.526367	963.995483
2912.772461	949.954346
2912.018555	940.252380
2911.264648	919.659302
2910.510742	913.976074
2909.755859	909.970703
2909.000977	893.516724
2908.247070	892.489380
2907.492188	906.190918
2906.736328	944.060730
2905.981445	939.424438
2905.226563	945.151672
2904.470703	915.132507
2903.715820	906.490479
2902.959961	916.893250
2902.204102	905.303284
2901.448242	918.397705
2900.691406	937.151123
2899.935547	927.794495
2899.179688	936.607056
2898.422852	924.103699
2897.666016	932.463440
2896.909180	943.641724
2896.152344	901.480530
2895.395508	896.764832
2894.637695	897.991455
2893.880859	899.550903
2893.123047	904.383606
2892.365234	927.295593
2891.607422	927.561401
2890.849609	957.066284
2890.091797	939.410767
2889.333984	941.741455
2888.575195	921.317200
2887.817383	897.792847
2887.058594	909.294128
2886.299805	917.549500
2885.541016	901.650146
2884.782227	907.040833
2884.022461	909.125610
2883.263672	928.619568
2882.503906	892.770508
2881.744141	894.000610
2880.984375	916.114624
2880.224609	929.579773
2879.464844	897.127441
2878.705078	867.988037
2877.944336	881.332947
2877.183594	915.694824
2876.423828	914.954590
2875.663086	920.689270
2874.902344	917.505493
2874.140625	913.887756
2873.379883	871.968140
2872.619141	839.462158
2871.857422	824.910339
2871.095703	840.335815
2870.333984	847.952026
2869.572266	853.612732
2868.810547	846.536987
2868.047852	832.274963
2867.286133	838.441101
2866.523438	818.426880
2865.761719	811.375488
2864.999023	825.252930
2864.236328	847.159851
2863.472656	871.756653
2862.709961	857.165283
2861.946289	844.238831
2861.183594	852.384399
2860.419922	829.019409
2859.656250	815.832092
2858.892578	832.175110
2858.128906	842.471252
2857.364258	842.829285
2856.600586	847.677368
2855.835938	869.927490
2855.071289	853.600159
2854.306641	816.438721
2853.541992	798.292786
2852.777344	803.814880
2852.012695	814.652771
2851.247070	843.152954
2850.482422	867.137451
2849.716797	893.341919
2848.951172	855.837097
2848.185547	835.337219
2847.418945	827.662720
2846.653320	830.639526
2845.887695	846.747925
2845.121094	879.652466
2844.354492	883.451416
2843.587891	888.018677
2842.821289	860.780029
2842.054688	857.956238
2841.287109	851.285828
2840.520508	837.771057
2839.752930	839.255798
2838.985352	859.178467
2838.217773	868.611633
2837.450195	902.215210
2836.682617	925.026855
2835.915039	951.488281
2835.146484	966.728271
2834.377930	976.250183
2833.610352	992.930054
2832.841797	1023.623474
2832.072266	1062.674561
2831.303711	1111.559937
2830.535156	1126.435669
2829.765625	1138.318604
2828.996094	1137.491333
2828.227539	1136.967651
2827.458008	1123.510498
2826.688477	1144.402100
2825.917969	1125.172729
2825.148438	1107.006104
2824.377930	1080.901611
2823.608398	1056.192383
2822.837891	1012.821411
2822.067383	969.575806
2821.295898	948.313293
2820.525391	917.315002
2819.754883	873.996948
2818.983398	853.565857
2818.211914	840.587402
2817.441406	835.019287
2816.669922	843.807678
2815.897461	852.705200
2815.125977	856.671814
2814.354492	837.313782
2813.582031	828.944824
2812.809570	794.869324
2812.037109	786.663635
2811.264648	772.158508
2810.492188	769.078491
2809.719727	760.302246
2808.946289	742.030640
2808.173828	737.153015
2807.400391	753.257874
2806.626953	773.789795
2805.853516	805.145264
2805.080078	791.879883
2804.305664	790.948730
2803.532227	779.824890
2802.757813	773.996277
2801.983398	775.998718
2801.208984	796.015747
2800.434570	812.660278
2799.660156	800.267456
2798.885742	797.199036
2798.110352	794.431335
2797.335938	771.459412
2796.560547	766.309937
2795.785156	766.136536
2795.009766	763.270752
2794.233398	757.665771
2793.458008	751.799622
2792.682617	758.133850
2791.906250	764.068237
2791.129883	767.228943
2790.353516	782.894470
2789.577148	803.529785
2788.800781	790.362122
2788.023438	782.102478
2787.247070	785.090942
2786.469727	783.534851
2785.692383	806.028320
2784.915039	827.278503
2784.137695	824.222778
2783.360352	833.086060
2782.582031	795.347107
2781.803711	801.921570
2781.026367	796.435791
2780.248047	778.567566
2779.469727	768.950195
2778.691406	762.472717
2777.912109	758.356079
2777.133789	780.841614
2776.354492	784.634399
2775.575195	812.209290
2774.795898	807.762939
2774.016602	813.393799
2773.237305	806.740234
2772.458008	800.217773
2771.677734	799.847229
2770.898438	790.906616
2770.118164	774.254395
2769.337891	775.404114
2768.557617	775.160889
2767.776367	802.822754
2766.996094	801.325317
2766.215820	775.270020
2765.434570	777.027588
2764.653320	768.889343
2763.872070	778.859863
2763.090820	812.256287
2762.309570	822.673462
2761.527344	826.263489
2760.746094	799.023926
2759.963867	768.575623
2759.181641	746.382263
2758.399414	732.059998
2757.617188	764.487305
2756.833984	797.046448
2756.051758	811.594421
2755.268555	834.435791
2754.486328	845.620056
2753.703125	823.770020
2752.919922	766.716858
2752.135742	745.673828
2751.352539	765.052979
2750.568359	779.629822
2749.785156	780.318909
2749.000977	814.155334
2748.216797	845.963196
2747.432617	834.488159
2746.648438	830.778076
2745.863281	836.020020
2745.079102	861.270020
2744.293945	859.423767
2743.508789	845.624878
2742.723633	845.143127
2741.938477	858.150940
2741.153320	875.855835
2740.367188	885.068542
2739.582031	906.183533
2738.795898	925.248169
2738.009766	923.544495
2737.223633	900.304199
2736.437500	899.842163
2735.651367	905.736633
2734.864258	926.677917
2734.077148	904.205444
2733.291016	923.514038
2732.503906	946.145691
2731.716797	932.964233
2730.928711	920.247864
2730.141602	925.308350
2729.353516	917.566162
2728.566406	916.234619
2727.778320	902.625061
2726.990234	910.582397
2726.202148	931.561584
2725.414063	925.966675
2724.625000	939.638611
2723.836914	937.720764
2723.047852	925.405518
2722.258789	940.578064
2721.469727	925.435974
2720.680664	926.110596
2719.890625	931.131592
2719.101563	922.297607
2718.311523	934.713745
2717.522461	950.707703
2716.732422	977.412170
2715.942383	1023.263550
2715.151367	1017.888245
2714.361328	1032.990723
2713.570313	1021.575195
2712.780273	991.531555
2711.989258	995.501343
2711.198242	993.554565
2710.407227	1000.471680
2709.616211	1018.822083
2708.824219	1022.953003
2708.033203	1039.631714
2707.241211	1041.475708
2706.449219	1045.818481
2705.657227	1079.343750
2704.865234	1101.962769
2704.072266	1104.509888
2703.280273	1106.260864
2702.487305	1097.722656
2701.695313	1087.236328
2700.902344	1056.412720
2700.108398	1062.309082
2699.315430	1062.323364
2698.522461	1071.776611
2697.728516	1086.510376
2696.935547	1091.157715
2696.141602	1121.391357
2695.347656	1133.120117
2694.553711	1141.224609
2693.758789	1160.569702
2692.964844	1156.677856
2692.169922	1154.799438
2691.375977	1146.947144
2690.581055	1142.728638
2689.786133	1160.641479
2688.990234	1156.944458
2688.195313	1160.611450
2687.400391	1159.311035
2686.604492	1155.027466
2685.808594	1130.383423
2685.012695	1138.989380
2684.216797	1165.877075
2683.420898	1200.345215
2682.624023	1181.316162
2681.828125	1190.203125
2681.031250	1181.000854
2680.234375	1156.941040
2679.437500	1111.106079
2678.640625	1132.354736
2677.843750	1158.645752
2677.045898	1161.447510
2676.249023	1128.129395
2675.451172	1164.914917
2674.653320	1174.794678
2673.855469	1187.468750
2673.057617	1160.227051
2672.258789	1174.230957
2671.460938	1190.827271
2670.662109	1162.559937
2669.863281	1166.505127
2669.064453	1170.638672
2668.265625	1163.081787
2667.466797	1168.364136
2666.666992	1169.630371
2665.868164	1174.001099
2665.068359	1191.310669
2664.268555	1176.588379
2663.468750	1211.590088
2662.668945	1192.375000
2661.868164	1202.883545
2661.068359	1207.385986
2660.267578	1223.646851
2659.466797	1215.642700
2658.666016	1213.011719
2657.865234	1203.447144
2657.064453	1229.478760
2656.263672	1198.486816
2655.461914	1202.869873
2654.660156	1215.778320
2653.858398	1237.391968
2653.056641	1247.006958
2652.254883	1232.782471
2651.453125	1226.295776
2650.650391	1228.996216
2649.848633	1186.749756
2649.045898	1193.379028
2648.243164	1204.528687
2647.440430	1223.337402
2646.636719	1244.269043
2645.833984	1252.060913
2645.030273	1265.292847
2644.227539	1286.197266
2643.423828	1293.769775
2642.620117	1307.790894
2641.815430	1274.326294
2641.011719	1245.791748
2640.208008	1240.664917
2639.403320	1205.556152
2638.598633	1205.919800
2637.793945	1202.249634
2636.989258	1228.447510
2636.184570	1239.489990
2635.378906	1245.074585
2634.574219	1263.397095
2633.768555	1261.256592
2632.962891	1239.779419
2632.157227	1259.356567
2631.351563	1250.831787
2630.545898	1254.594727
2629.739258	1245.046021
2628.932617	1244.127808
2628.126953	1267.066650
2627.320313	1258.597290
2626.513672	1290.115601
2625.706055	1312.253540
2624.899414	1357.571655
2624.091797	1392.991821
2623.285156	1418.262817
2622.477539	1423.993286
2621.669922	1421.246338
2620.861328	1374.290894
2620.053711	1361.866577
2619.246094	1334.681885
2618.437500	1372.215088
2617.628906	1410.793701
2616.820313	1455.008301
2616.011719	1459.041016
2615.203125	1463.427612
2614.393555	1426.987549
2613.584961	1439.830322
2612.775391	1423.872192
2611.965820	1434.053101
2611.156250	1446.112427
2610.346680	1456.975098
2609.536133	1441.124756
2608.726563	1432.057861
2607.916016	1389.347778
2607.105469	1378.810059
2606.294922	1361.357666
2605.484375	1359.238647
2604.673828	1359.560059
2603.862305	1353.096680
2603.051758	1347.362427
2602.240234	1313.049805
2601.428711	1288.229736
2600.617188	1277.349609
2599.805664	1294.622559
2598.993164	1316.463745
2598.181641	1323.015625
2597.369141	1339.790283
2596.556641	1336.718384
2595.744141	1305.654297
2594.931641	1274.865723
2594.119141	1260.106689
2593.305664	1264.575562
2592.493164	1291.452637
2591.679688	1290.958008
2590.866211	1305.425659
